* Measurement data measured by REW V5.31.3
* Source: Trace Arithmetic result Excess phase
* Format: Trace Arithmetic result Excess phase
* Dated: 13/11/2024 2:21:09 PM
* REW Settings:
*  C-weighting compensation: Off
*  Target level: 75.0 dB
* Note: Excess phase copy of L+R Jun 23-EP Cal file effects included No LF tail No HF tail
* Measurement: L+R Jun 23-EP
* Smoothing: 1/6 octave
* Frequency Step: 96 ppo
* Start Frequency: 22.338867 Hz
*
* Freq(Hz) SPL(dB) Phase(degrees)
22.338867 0.008 63.8982
22.500744 0.008 63.6852
22.663793 0.009 63.3649
22.828025 0.009 62.9100
22.993446 0.009 62.3052
23.160066 0.009 61.5559
23.327893 0.010 60.6930
23.496937 0.010 59.7701
23.667205 0.010 58.8555
23.838708 0.010 58.0201
24.011453 0.010 57.3224
24.185450 0.010 56.7969
24.360707 0.010 56.4469
24.537235 0.010 56.2446
24.715042 0.010 56.1385
24.894137 0.010 56.0676
25.074531 0.010 55.9781
25.256231 0.010 55.8411
25.439248 0.010 55.6647
25.623591 0.010 55.5008
25.809270 0.010 55.4415
25.996295 0.010 55.6067
26.184675 0.010 56.1234
26.374420 0.010 57.0998
26.565540 0.010 58.5990
26.758045 0.010 60.6156
26.951944 0.010 63.0639
27.147249 0.010 65.7794
27.343970 0.010 68.5408
27.542115 0.010 71.1061
27.741697 0.010 73.2525
27.942724 0.010 74.8099
28.145209 0.010 75.6781
28.349161 0.010 75.8300
28.554590 0.010 75.3045
28.761509 0.010 74.1937
28.969927 0.010 72.6267
29.179855 0.010 70.7503
29.391304 0.010 68.7098
29.604285 0.010 66.6319
29.818810 0.010 64.6138
30.034890 0.010 62.7188
30.252535 0.010 60.9801
30.471757 0.010 59.4070
30.692568 0.010 57.9946
30.914979 0.010 56.7307
31.139002 0.010 55.6018
31.364648 0.010 54.5958
31.591929 0.010 53.7020
31.820857 0.010 52.9110
32.051444 0.010 52.2130
32.283702 0.010 51.5974
32.517643 0.010 51.0532
32.753279 0.010 50.5700
32.990623 0.010 50.1384
33.229687 0.010 49.7510
33.470483 0.010 49.4020
33.713024 0.010 49.0865
33.957322 0.010 48.7990
34.203391 0.010 48.5329
34.451243 0.010 48.2796
34.700891 0.010 48.0295
34.952348 0.010 47.7730
35.205627 0.010 47.5021
35.460741 0.010 47.2118
35.717704 0.010 46.9005
35.976530 0.010 46.5690
36.237230 0.010 46.2198
36.499820 0.010 45.8552
36.764313 0.010 45.4766
37.030722 0.010 45.0840
37.299062 0.010 44.6768
37.569347 0.010 44.2553
37.841590 0.010 43.8213
38.115805 0.010 43.3786
38.392008 0.010 42.9325
38.670213 0.010 42.4884
38.950433 0.010 42.0501
39.232684 0.010 41.6194
39.516980 0.010 41.1962
39.803336 0.010 40.7792
40.091768 0.010 40.3673
40.382289 0.010 39.9614
40.674916 0.010 39.5643
40.969663 0.010 39.1813
41.266546 0.010 38.8195
41.565581 0.010 38.4872
41.866782 0.010 38.1932
42.170166 0.010 37.9466
42.475748 0.010 37.7565
42.783545 0.010 37.6317
43.093572 0.010 37.5795
43.405846 0.010 37.6045
43.720383 0.010 37.7061
44.037199 0.010 37.8766
44.356310 0.010 38.1002
44.677734 0.010 38.3527
45.001488 0.010 38.6031
45.327587 0.010 38.8164
45.656049 0.010 38.9586
45.986892 0.010 39.0012
46.320132 0.010 38.9270
46.655787 0.010 38.7333
46.993874 0.010 38.4332
47.334411 0.010 38.0532
47.677415 0.010 37.6273
48.022906 0.010 37.1895
48.370899 0.010 36.7664
48.721415 0.010 36.3733
49.074470 0.010 36.0138
49.430084 0.010 35.6837
49.788275 0.010 35.3762
50.149061 0.010 35.0864
50.512462 0.010 34.8127
50.878496 0.010 34.5556
51.247183 0.010 34.3152
51.618541 0.010 34.0892
51.992590 0.010 33.8723
52.369350 0.010 33.6578
52.748840 0.010 33.4398
53.131080 0.010 33.2146
53.516089 0.010 32.9811
53.903889 0.010 32.7407
54.294499 0.010 32.4957
54.687939 0.010 32.2486
55.084230 0.010 32.0013
55.483393 0.010 31.7542
55.885449 0.010 31.5065
56.290418 0.010 31.2565
56.698322 0.010 31.0030
57.109181 0.010 30.7460
57.523018 0.010 30.4872
57.939853 0.010 30.2301
58.359709 0.010 29.9783
58.782608 0.010 29.7351
59.208571 0.010 29.5023
59.637620 0.010 29.2802
60.069779 0.010 29.0676
60.505070 0.010 28.8624
60.943514 0.010 28.6624
61.385136 0.010 28.4656
61.829958 0.010 28.2713
62.278003 0.010 28.0805
62.729296 0.010 27.8955
63.183858 0.010 27.7193
63.641714 0.010 27.5555
64.102888 0.010 27.4069
64.567404 0.010 27.2753
65.035286 0.010 27.1613
65.506559 0.010 27.0639
65.981246 0.010 26.9806
66.459374 0.010 26.9072
66.940966 0.010 26.8380
67.426047 0.010 26.7652
67.914644 0.010 26.6801
68.406782 0.010 26.5735
68.902486 0.010 26.4374
69.401781 0.010 26.2673
69.904695 0.010 26.0634
70.411254 0.010 25.8315
70.921483 0.010 25.5824
71.435409 0.010 25.3290
71.953059 0.010 25.0833
72.474461 0.010 24.8534
72.999641 0.010 24.6419
73.528626 0.010 24.4467
74.061445 0.010 24.2637
74.598125 0.010 24.0888
75.138693 0.010 23.9193
75.683179 0.010 23.7531
76.231611 0.010 23.5885
76.784016 0.010 23.4246
77.340425 0.010 23.2614
77.900866 0.010 23.0999
78.465368 0.010 22.9423
79.033960 0.010 22.7903
79.606673 0.010 22.6451
80.183535 0.010 22.5071
80.764578 0.010 22.3763
81.349832 0.010 22.2516
81.939326 0.010 22.1317
82.533092 0.010 22.0150
83.131161 0.010 21.9000
83.733564 0.010 21.7860
84.340332 0.010 21.6723
84.951496 0.010 21.5590
85.567090 0.010 21.4461
86.187144 0.010 21.3335
86.811692 0.010 21.2211
87.440765 0.010 21.1085
88.074397 0.010 20.9953
88.712621 0.010 20.8814
89.355469 0.010 20.7665
90.002975 0.010 20.6509
90.655174 0.010 20.5346
91.312099 0.010 20.4179
91.973784 0.010 20.3011
92.640264 0.010 20.1844
93.311573 0.010 20.0680
93.987747 0.010 19.9524
94.668821 0.010 19.8382
95.354831 0.010 19.7264
96.045811 0.010 19.6182
96.741799 0.010 19.5149
97.442830 0.010 19.4171
98.148941 0.010 19.3250
98.860168 0.010 19.2382
99.576550 0.010 19.1555
100.298122 0.010 19.0754
101.024924 0.010 18.9958
101.756992 0.010 18.9151
102.494365 0.010 18.8320
103.237082 0.010 18.7459
103.985180 0.010 18.6570
104.738700 0.010 18.5659
105.497680 0.010 18.4735
106.262159 0.010 18.3805
107.032179 0.010 18.2876
107.807778 0.010 18.1950
108.588997 0.010 18.1027
109.375878 0.010 18.0102
110.168461 0.010 17.9174
110.966787 0.010 17.8240
111.770898 0.010 17.7305
112.580836 0.010 17.6379
113.396643 0.010 17.5476
114.218362 0.010 17.4608
115.046035 0.010 17.3782
115.879706 0.010 17.3005
116.719418 0.010 17.2286
117.565215 0.010 17.1634
118.417141 0.010 17.1057
119.275241 0.010 17.0565
120.139558 0.010 17.0165
121.010139 0.010 16.9861
121.887029 0.010 16.9649
122.770272 0.010 16.9516
123.659916 0.010 16.9446
124.556007 0.010 16.9412
125.458591 0.010 16.9386
126.367716 0.010 16.9328
127.283428 0.010 16.9193
128.205777 0.010 16.8920
129.134808 0.010 16.8440
130.070572 0.010 16.7668
131.013117 0.010 16.6517
131.962493 0.010 16.4902
132.918747 0.010 16.2761
133.881931 0.010 16.0068
134.852095 0.010 15.6853
135.829289 0.010 15.3214
136.813564 0.010 14.9315
137.804971 0.010 14.5367
138.803563 0.010 14.1593
139.809391 0.010 13.8185
140.822507 0.010 13.5264
141.842965 0.010 13.2865
142.870818 0.010 13.0951
143.906119 0.010 12.9441
144.948922 0.010 12.8253
145.999281 0.010 12.7313
147.057252 0.010 12.6566
148.122890 0.010 12.5964
149.196249 0.010 12.5462
150.277387 0.010 12.5018
151.366359 0.010 12.4589
152.463222 0.010 12.4142
153.568033 0.010 12.3649
154.680850 0.010 12.3094
155.801731 0.010 12.2465
156.930735 0.010 12.1758
158.067920 0.010 12.0972
159.213345 0.010 12.0105
160.367071 0.010 11.9164
161.529157 0.010 11.8155
162.699663 0.010 11.7087
163.878652 0.010 11.5971
165.066185 0.010 11.4812
166.262322 0.010 11.3616
167.467127 0.010 11.2387
168.680663 0.010 11.1127
169.902993 0.010 10.9838
171.134180 0.010 10.8522
172.374289 0.010 10.7180
173.623384 0.010 10.5809
174.881531 0.010 10.4410
176.148794 0.010 10.2983
177.425241 0.010 10.1532
178.710938 0.010 10.0062
180.005951 0.010 9.8582
181.310348 0.010 9.7095
182.624197 0.010 9.5606
183.947568 0.010 9.4119
185.280528 0.010 9.2635
186.623147 0.010 9.1158
187.975495 0.010 8.9693
189.337643 0.010 8.8240
190.709661 0.010 8.6801
192.091622 0.010 8.5373
193.483597 0.010 8.3955
194.885659 0.010 8.2543
196.297881 0.010 8.1138
197.720336 0.010 7.9738
199.153100 0.010 7.8344
200.596245 0.010 7.6953
202.049848 0.010 7.5561
203.513985 0.010 7.4166
204.988731 0.010 7.2768
206.474164 0.010 7.1370
207.970361 0.010 6.9980
209.477399 0.010 6.8608
210.995359 0.010 6.7265
212.524318 0.010 6.5956
214.064357 0.010 6.4685
215.615556 0.010 6.3450
217.177995 0.010 6.2242
218.751756 0.010 6.1047
220.336922 0.010 5.9852
221.933574 0.010 5.8641
223.541796 0.010 5.7406
225.161672 0.010 5.6142
226.793286 0.010 5.4855
228.436724 0.010 5.3557
230.092071 0.010 5.2260
231.759413 0.010 5.0980
233.438837 0.010 4.9728
235.130431 0.010 4.8513
236.834283 0.010 4.7341
238.550482 0.010 4.6214
240.279117 0.010 4.5127
242.020278 0.010 4.4071
243.774057 0.010 4.3035
245.540544 0.010 4.2006
247.319832 0.010 4.0973
249.112014 0.010 3.9931
250.917182 0.010 3.8877
252.735432 0.010 3.7819
254.566857 0.010 3.6769
256.411553 0.010 3.5745
258.269617 0.010 3.4765
260.141145 0.010 3.3849
262.026235 0.010 3.3014
263.924985 0.010 3.2273
265.837494 0.010 3.1638
267.763862 0.010 3.1117
269.704190 0.010 3.0715
271.658577 0.010 3.0434
273.627127 0.010 3.0270
275.609942 0.010 3.0219
277.607126 0.010 3.0270
279.618781 0.010 3.0415
281.645014 0.010 3.0644
283.685930 0.010 3.0944
285.741635 0.010 3.1303
287.812237 0.010 3.1709
289.897843 0.010 3.2149
291.998562 0.010 3.2610
294.114504 0.010 3.3075
296.245779 0.010 3.3527
298.392498 0.010 3.3946
300.554773 0.010 3.4309
302.732717 0.010 3.4590
304.926443 0.010 3.4761
307.136066 0.010 3.4792
309.361701 0.010 3.4654
311.603463 0.010 3.4315
313.861470 0.010 3.3744
316.135840 0.010 3.2911
318.426690 0.010 3.1786
320.734141 0.010 3.0348
323.058313 0.010 2.8579
325.399327 0.010 2.6472
327.757305 0.010 2.4026
330.132369 0.010 2.1249
332.524644 0.010 1.8160
334.934255 0.010 1.4784
337.361327 0.010 1.1153
339.805986 0.010 0.7303
342.268360 0.010 0.3276
344.748578 0.010 -0.0884
347.246768 0.010 -0.5128
349.763061 0.010 -0.9405
352.297589 0.010 -1.3660
354.850482 0.010 -1.7842
357.421875 0.010 -2.1897
360.011901 0.010 -2.5777
362.620696 0.010 -2.9437
365.248395 0.010 -3.2839
367.895135 0.010 -3.5947
370.561055 0.010 -3.8733
373.246293 0.010 -4.1170
375.950990 0.010 -4.3242
378.675286 0.010 -4.4938
381.419323 0.010 -4.6254
384.183245 0.010 -4.7190
386.967195 0.010 -4.7753
389.771319 0.010 -4.7954
392.595762 0.010 -4.7806
395.440673 0.010 -4.7327
398.306199 0.010 -4.6536
401.192490 0.010 -4.5456
404.099696 0.010 -4.4109
407.027969 0.010 -4.2520
409.977462 0.010 -4.0712
412.948327 0.010 -3.8710
415.940721 0.010 -3.6535
418.954799 0.010 -3.4212
421.990718 0.010 -3.1759
425.048637 0.010 -2.9200
428.128714 0.010 -2.6556
431.231112 0.010 -2.3848
434.355990 0.010 -2.1098
437.503513 0.010 -1.8326
440.673843 0.010 -1.5553
443.867148 0.010 -1.2794
447.083592 0.010 -1.0065
450.323344 0.010 -0.7379
453.586573 0.010 -0.4748
456.873448 0.010 -0.2180
460.184141 0.010 0.0314
463.518825 0.010 0.2725
466.877674 0.010 0.5042
470.260862 0.010 0.7259
473.668566 0.010 0.9366
477.100964 0.010 1.1359
480.558234 0.010 1.3232
484.040557 0.010 1.4981
487.548114 0.010 1.6603
491.081089 0.010 1.8095
494.639665 0.010 1.9458
498.224028 0.010 2.0696
501.834364 0.010 2.1817
505.470863 0.010 2.2836
509.133713 0.010 2.3771
512.823106 0.010 2.4647
516.539234 0.010 2.5494
520.282290 0.010 2.6342
524.052470 0.010 2.7226
527.849970 0.010 2.8178
531.674989 0.010 2.9228
535.527725 0.010 3.0402
539.408379 0.010 3.1724
543.317155 0.010 3.3209
547.254255 0.010 3.4871
551.219885 0.010 3.6715
555.214251 0.010 3.8742
559.237563 0.010 4.0948
563.290029 0.010 4.3328
567.371860 0.010 4.5869
571.483271 0.010 4.8555
575.624474 0.010 5.1366
579.795686 0.010 5.4273
583.997125 0.010 5.7245
588.229009 0.010 6.0243
592.491559 0.010 6.3224
596.784997 0.010 6.6141
601.109547 0.010 6.8949
605.465434 0.010 7.1601
609.852887 0.010 7.4052
614.272132 0.010 7.6266
618.723401 0.010 7.8210
623.206926 0.010 7.9862
627.722940 0.010 8.1206
632.271679 0.010 8.2236
636.853381 0.010 8.2956
641.468283 0.010 8.3377
646.116626 0.010 8.3517
650.798654 0.010 8.3401
655.514609 0.010 8.3058
660.264738 0.010 8.2519
665.049289 0.010 8.1822
669.868510 0.010 8.1007
674.722653 0.010 8.0119
679.611972 0.010 7.9206
684.536720 0.010 7.8313
689.497155 0.010 7.7485
694.493536 0.010 7.6761
699.526123 0.010 7.6174
704.595177 0.010 7.5749
709.700964 0.010 7.5506
714.843750 0.010 7.5453
720.023802 0.010 7.5590
725.241392 0.010 7.5909
730.496790 0.010 7.6391
735.790271 0.010 7.7011
741.122110 0.010 7.7735
746.492587 0.010 7.8524
751.901980 0.010 7.9336
757.350571 0.010 8.0130
762.838646 0.010 8.0862
768.366489 0.010 8.1492
773.934389 0.010 8.1987
779.542637 0.010 8.2316
785.191524 0.010 8.2459
790.881346 0.010 8.2402
796.612398 0.010 8.2142
802.384980 0.010 8.1682
808.199392 0.010 8.1034
814.055938 0.010 8.0219
819.954923 0.010 7.9265
825.896654 0.010 7.8209
831.881442 0.010 7.7093
837.909598 0.010 7.5966
843.981436 0.010 7.4878
850.097274 0.010 7.3878
856.257429 0.010 7.3013
862.462223 0.010 7.2327
868.711980 0.010 7.1855
875.007025 0.010 7.1628
881.347687 0.010 7.1670
887.734295 0.010 7.1994
894.167184 0.010 7.2606
900.646688 0.010 7.3501
907.173145 0.010 7.4663
913.746896 0.010 7.6063
920.368282 0.010 7.7664
927.037650 0.010 7.9423
933.755347 0.010 8.1287
940.521724 0.010 8.3202
947.337132 0.010 8.5111
954.201927 0.010 8.6956
961.116468 0.010 8.8680
968.081114 0.010 9.0227
975.096228 0.010 9.1548
982.162178 0.010 9.2595
989.279330 0.010 9.3334
996.448056 0.010 9.3738
1003.668729 0.010 9.3796
1010.941726 0.010 9.3508
1018.267427 0.010 9.2888
1025.646212 0.010 9.1966
1033.078467 0.010 9.0778
1040.564580 0.010 8.9372
1048.104940 0.010 8.7804
1055.699940 0.010 8.6134
1063.349977 0.010 8.4425
1071.055449 0.010 8.2741
1078.816759 0.010 8.1144
1086.634310 0.010 7.9692
1094.508510 0.010 7.8437
1102.439770 0.010 7.7424
1110.428503 0.010 7.6687
1118.475125 0.010 7.6251
1126.580057 0.010 7.6126
1134.743721 0.010 7.6311
1142.966542 0.010 7.6788
1151.248948 0.010 7.7529
1159.591373 0.010 7.8491
1167.994250 0.010 7.9624
1176.458018 0.010 8.0870
1184.983117 0.010 8.2166
1193.569993 0.010 8.3450
1202.219094 0.010 8.4657
1210.930869 0.010 8.5725
1219.705773 0.010 8.6595
1228.544264 0.010 8.7215
1237.446802 0.010 8.7539
1246.413852 0.010 8.7531
1255.445880 0.010 8.7167
1264.543359 0.010 8.6435
1273.706761 0.010 8.5339
1282.936565 0.010 8.3895
1292.233253 0.010 8.2132
1301.597307 0.010 8.0094
1311.029218 0.010 7.7832
1320.529476 0.010 7.5408
1330.098577 0.010 7.2891
1339.737020 0.010 7.0352
1349.445306 0.010 6.7864
1359.223943 0.010 6.5499
1369.073440 0.010 6.3324
1378.994311 0.010 6.1399
1388.987072 0.010 5.9774
1399.052245 0.010 5.8491
1409.190354 0.010 5.7577
1419.401929 0.010 5.7045
1429.687500 0.010 5.6897
1440.047605 0.010 5.7119
1450.482784 0.010 5.7685
1460.993580 0.010 5.8556
1471.580541 0.010 5.9683
1482.244221 0.010 6.1009
1492.985173 0.010 6.2468
1503.803959 0.010 6.3991
1514.701143 0.010 6.5508
1525.677292 0.010 6.6946
1536.732978 0.010 6.8240
1547.868779 0.010 6.9331
1559.085274 0.010 7.0169
1570.383049 0.010 7.0715
1581.762692 0.010 7.0944
1593.224796 0.010 7.0844
1604.769960 0.010 7.0418
1616.398784 0.010 6.9684
1628.111876 0.010 6.8673
1639.909846 0.010 6.7427
1651.793309 0.010 6.6002
1663.762884 0.010 6.4459
1675.819196 0.010 6.2869
1687.962872 0.010 6.1303
1700.194547 0.010 5.9833
1712.514858 0.010 5.8531
1724.924446 0.010 5.7462
1737.423960 0.010 5.6685
1750.014050 0.010 5.6246
1762.695373 0.010 5.6184
1775.468591 0.010 5.6518
1788.334368 0.010 5.7258
1801.293376 0.010 5.8396
1814.346290 0.010 5.9908
1827.493791 0.010 6.1758
1840.736565 0.010 6.3895
1854.075301 0.010 6.6254
1867.510695 0.010 6.8759
1881.043447 0.010 7.1330
1894.674263 0.010 7.3879
1908.403854 0.010 7.6318
1922.232935 0.010 7.8564
1936.162227 0.010 8.0538
1950.192457 0.010 8.2170
1964.324355 0.010 8.3402
1978.558659 0.010 8.4190
1992.896111 0.010 8.4506
2007.337458 0.010 8.4338
2021.883452 0.010 8.3689
2036.534853 0.010 8.2582
2051.292424 0.010 8.1054
2066.156935 0.010 7.9156
2081.129160 0.010 7.6953
2096.209880 0.010 7.4520
2111.399881 0.010 7.1936
2126.699954 0.010 6.9289
2142.110899 0.010 6.6668
2157.633518 0.010 6.4158
2173.268619 0.010 6.1842
2189.017020 0.010 5.9793
2204.879539 0.010 5.8075
2220.857005 0.010 5.6736
2236.950251 0.010 5.5809
2253.160114 0.010 5.5311
2269.487441 0.010 5.5245
2285.933083 0.010 5.5596
2302.497896 0.010 5.6332
2319.182745 0.010 5.7409
2335.988500 0.010 5.8768
2352.916035 0.010 6.0339
2369.966235 0.010 6.2045
2387.139987 0.010 6.3802
2404.438187 0.010 6.5527
2421.861738 0.010 6.7138
2439.411546 0.010 6.8557
2457.088528 0.010 6.9716
2474.893604 0.010 7.0556
2492.827703 0.010 7.1034
2510.891761 0.010 7.1119
2529.086717 0.010 7.0800
2547.413522 0.010 7.0082
2565.873131 0.010 6.8984
2584.466505 0.010 6.7545
2603.194615 0.010 6.5818
2622.058436 0.010 6.3866
2641.058952 0.010 6.1765
2660.197154 0.010 5.9600
2679.474039 0.010 5.7458
2698.890613 0.010 5.5430
2718.447887 0.010 5.3601
2738.146881 0.010 5.2051
2757.988622 0.010 5.0852
2777.974144 0.010 5.0060
2798.104490 0.010 4.9719
2818.380709 0.010 4.9854
2838.803857 0.010 5.0472
2859.375000 0.010 5.1564
2880.095210 0.010 5.3101
2900.965567 0.010 5.5036
2921.987159 0.010 5.7308
2943.161083 0.010 5.9840
2964.488441 0.010 6.2545
2985.970347 0.010 6.5328
3007.607919 0.010 6.8087
3029.402285 0.010 7.0721
3051.354583 0.010 7.3128
3073.465956 0.010 7.5218
3095.737558 0.010 7.6904
3118.170548 0.010 7.8119
3140.766097 0.010 7.8806
3163.525383 0.010 7.8931
3186.449592 0.010 7.8475
3209.539919 0.010 7.7442
3232.797569 0.010 7.5854
3256.223753 0.010 7.3751
3279.819692 0.010 7.1193
3303.586618 0.010 6.8252
3327.525768 0.010 6.5015
3351.638391 0.010 6.1578
3375.925745 0.010 5.8040
3400.389094 0.010 5.4507
3425.029716 0.010 5.1080
3449.848893 0.010 4.7852
3474.847920 0.010 4.4910
3500.028100 0.010 4.2326
3525.390747 0.010 4.0156
3550.937181 0.010 3.8439
3576.668736 0.010 3.7197
3602.586752 0.010 3.6431
3628.692581 0.010 3.6122
3654.987583 0.010 3.6235
3681.473130 0.010 3.6715
3708.150602 0.010 3.7494
3735.021389 0.010 3.8491
3762.086894 0.010 3.9614
3789.348527 0.010 4.0767
3816.807708 0.010 4.1851
3844.465870 0.010 4.2767
3872.324455 0.010 4.3424
3900.384914 0.010 4.3738
3928.648711 0.010 4.3640
3957.117319 0.010 4.3075
3985.792222 0.010 4.2006
4014.674916 0.010 4.0415
4043.766905 0.010 3.8306
4073.069707 0.010 3.5701
4102.584849 0.010 3.2639
4132.313870 0.010 2.9180
4162.258320 0.010 2.5397
4192.419759 0.010 2.1375
4222.799761 0.010 1.7211
4253.399909 0.010 1.3005
4284.221798 0.010 0.8861
4315.267035 0.010 0.4882
4346.537239 0.010 0.1165
4378.034040 0.010 -0.2201
4409.759079 0.010 -0.5140
4441.714011 0.010 -0.7590
4473.900502 0.010 -0.9504
4506.320229 0.010 -1.0856
4538.974883 0.010 -1.1637
4571.866166 0.010 -1.1857
4604.995793 0.010 -1.1545
4638.365491 0.010 -1.0746
4671.976999 0.010 -0.9520
4705.832070 0.010 -0.7939
4739.932469 0.010 -0.6084
4774.279974 0.010 -0.4043
4808.876375 0.010 -0.1906
4843.723475 0.010 0.0239
4878.823092 0.010 0.2306
4914.177056 0.010 0.4218
4949.787208 0.010 0.5909
4985.655407 0.010 0.7327
5021.783521 0.010 0.8435
5058.173435 0.010 0.9216
5094.827044 0.010 0.9669
5131.746261 0.010 0.9811
5168.933010 0.010 0.9678
5206.389230 0.010 0.9319
5244.116872 0.010 0.8800
5282.117905 0.010 0.8196
5320.394308 0.010 0.7590
5358.948079 0.010 0.7070
5397.781226 0.010 0.6725
5436.895774 0.010 0.6638
5476.293761 0.010 0.6889
5515.977244 0.010 0.7547
5555.948288 0.010 0.8666
5596.208980 0.010 1.0286
5636.761417 0.010 1.2431
5677.607714 0.010 1.5103
5718.750000 0.010 1.8287
5760.190420 0.010 2.1947
5801.931134 0.010 2.6031
5843.974319 0.010 3.0466
5886.322166 0.010 3.5169
5928.976883 0.010 4.0042
5971.940693 0.010 4.4980
6015.215837 0.010 4.9869
6058.804571 0.010 5.4599
6102.709166 0.010 5.9059
6146.931913 0.010 6.3146
6191.475115 0.010 6.6767
6236.341096 0.010 6.9844
6281.532195 0.010 7.2314
6327.050766 0.010 7.4136
6372.899184 0.010 7.5288
6419.079839 0.010 7.5768
6465.595137 0.010 7.5597
6512.447505 0.010 7.4818
6559.639384 0.010 7.3491
6607.173235 0.010 7.1693
6655.051536 0.010 6.9514
6703.276783 0.010 6.7055
6751.851490 0.010 6.4424
6800.778189 0.010 6.1730
6850.059431 0.010 5.9078
6899.697786 0.010 5.6571
6949.695840 0.010 5.4300
7000.056201 0.010 5.2345
7050.781494 0.010 5.0769
7101.874363 0.010 4.9621
7153.337472 0.010 4.8929
7205.173504 0.010 4.8702
7257.385161 0.010 4.8929
7309.975166 0.010 4.9580
7362.946259 0.010 5.0605
7416.301203 0.010 5.1938
7470.042779 0.010 5.3500
7524.173788 0.010 5.5199
7578.697053 0.010 5.6941
7633.615416 0.010 5.8626
7688.931740 0.010 6.0156
7744.648909 0.010 6.1439
7800.769828 0.010 6.2391
7857.297421 0.010 6.2942
7914.234637 0.010 6.3032
7971.584444 0.010 6.2623
8029.349831 0.010 6.1689
8087.533810 0.010 6.0229
8146.139414 0.010 5.8258
8205.169698 0.010 5.5810
8264.627740 0.010 5.2941
8324.516639 0.010 4.9719
8384.839519 0.010 4.6230
8445.599522 0.010 4.2567
8506.799818 0.010 3.8831
8568.443596 0.010 3.5126
8630.534070 0.010 3.1554
8693.074478 0.010 2.8210
8756.068079 0.010 2.5181
8819.518158 0.010 2.2541
8883.428022 0.010 2.0348
8947.801003 0.010 1.8645
9012.640458 0.010 1.7458
9077.949766 0.010 1.6794
9143.732332 0.010 1.6643
9209.991586 0.010 1.6977
9276.730981 0.010 1.7750
9343.953998 0.010 1.8900
9411.664141 0.010 2.0352
9479.864939 0.010 2.2020
9548.559948 0.010 2.3811
9617.752749 0.010 2.5628
9687.446951 0.010 2.7378
9757.646185 0.010 2.8972
9828.354111 0.010 3.0330
9899.574417 0.010 3.1384
9971.310814 0.010 3.2081
10043.567042 0.010 3.2382
10116.346869 0.010 3.2267
10189.654089 0.010 3.1733
10263.492523 0.010 3.0794
10337.866020 0.010 2.9480
10412.778459 0.010 2.7839
10488.233744 0.010 2.5934
10564.235809 0.010 2.3837
10640.788617 0.010 2.1633
10717.896158 0.010 1.9411
10795.562451 0.010 1.7262
10873.791547 0.010 1.5273
10952.587523 0.010 1.3527
11031.954487 0.010 1.2095
11111.896577 0.010 1.1039
11192.417960 0.010 1.0402
11273.522834 0.010 1.0214
11355.215428 0.010 1.0488
11437.500000 0.010 1.1221
11520.380840 0.010 1.2394
11603.862268 0.010 1.3972
11687.948638 0.010 1.5906
11772.644332 0.010 1.8133
11857.953765 0.010 2.0576
11943.881387 0.010 2.3152
12030.431675 0.010 2.5767
12117.609142 0.010 2.8328
12205.418333 0.010 3.0740
12293.863825 0.010 3.2913
12382.950230 0.010 3.4765
12472.682192 0.010 3.6226
12563.064389 0.010 3.7240
12654.101532 0.010 3.7768
12745.798368 0.010 3.7787
12838.159678 0.010 3.7291
12931.190275 0.010 3.6294
13024.895010 0.010 3.4825
13119.278768 0.010 3.2928
13214.346470 0.010 3.0663
13310.103072 0.010 2.8102
13406.553566 0.010 2.5325
13503.702980 0.010 2.2422
13601.556378 0.010 1.9486
13700.118862 0.010 1.6609
13799.395571 0.010 1.3881
13899.391680 0.010 1.1382
14000.112402 0.010 0.9183
14101.562987 0.010 0.7340
14203.748726 0.010 0.5892
14306.674944 0.010 0.4864
14410.347008 0.010 0.4262
14514.770323 0.010 0.4077
14619.950332 0.010 0.4283
14725.892519 0.010 0.4841
14832.602406 0.010 0.5700
14940.085558 0.010 0.6797
15048.347576 0.010 0.8064
15157.394106 0.010 0.9423
15267.230832 0.010 1.0794
15377.863480 0.010 1.2095
15489.297818 0.010 1.3245
15601.539655 0.010 1.4169
15714.594843 0.010 1.4800
15828.469275 0.010 1.5080
15943.168888 0.010 1.4966
16058.699662 0.010 1.4429
16175.067620 0.010 1.3457
16292.278827 0.010 1.2050
16410.339396 0.010 1.0223
16529.255480 0.010 0.8006
16649.033279 0.010 0.5434
16769.679037 0.010 0.2553
16891.199044 0.010 -0.0586
17013.599635 0.010 -0.3932
17136.887192 0.010 -0.7431
17261.068141 0.010 -1.1034
17386.148956 0.010 -1.4696
17512.136158 0.010 -1.8379
17639.036316 0.010 -2.2052
17766.856044 0.010 -2.5698
17895.602007 0.010 -2.9311
18025.280916 0.010 -3.2894
18155.899532 0.010 -3.6464
18287.464664 0.010 -4.0045
18419.983172 0.010 -4.3665
18553.461963 0.010 -4.7351
18687.907996 0.010 -5.1123
18823.328281 0.010 -5.4987
18959.729878 0.010 -5.8926
19097.119896 0.010 -6.2898
19235.505499 0.010 -6.6830
19374.893901 0.010 -7.0616
19515.292369 0.010 -7.4125
19656.708222 0.010 -7.7208
19799.148833 0.010 -7.9721
19942.621627 0.010 -8.1544
